File: experimental_data/tensile_specimen_test_data/TXT/(2)R2001314-0.2,0.2-0.5.txt
0.6657 0.5000 0.2000
121.8657 0.5000 0.2000
168.9000 12.9000 0.2000
47.7000 12.9000 0.2000
64.1000 1.5000 0.2000
185.3000 1.5000 0.2000
101.7000 11.9000 0.2000
13.9000 2.5000 0.2000
135.1000 2.5000 0.2000
147.9000 10.9000 0.2000
26.7000 10.9000 0.2000
92.9000 3.5000 0.2000
186.1000 9.9000 0.2000
64.9000 9.9000 0.2000
58.7000 4.5000 0.2000
179.9000 4.5000 0.2000
95.1000 8.9000 0.2000
32.5000 5.5000 0.2000
153.7000 5.5000 0.2000
117.3000 7.9000 0.2000
14.3000 6.5000 0.2000
135.5000 6.5000 0.2000
131.5000 6.9000 0.2000
10.3000 6.9000 0.2000
123.6000 7.4000 0.2000
145.4000 6.0000 0.2000
24.2000 6.0000 0.2000
105.4000 8.4000 0.2000
167.6000 5.0000 0.2000
46.4000 5.0000 0.2000
79.2000 9.4000 0.2000
196.4000 5.4000 0.2000
76.6000 4.0000 0.2000
45.0000 10.4000 0.2000
166.2000 10.4000 0.2000
114.8000 3.0000 0.2000
2.8000 11.4000 0.2000
124.0000 11.4000 0.2000
161.0000 2.0000 0.2000
39.8000 2.0000 0.2000
73.8000 12.4000 0.2000
195.0000 12.4000 0.2000
94.0000 1.0000 0.2000
27.6000 1.0000 0.4000
148.8000 1.0000 0.4000
140.2000 12.4000 0.4000
19.0000 12.4000 0.4000
94.6000 2.0000 0.4000
190.4000 11.4000 0.4000
69.2000 11.4000 0.4000
48.4000 3.0000 0.4000
169.6000 3.0000 0.4000
111.4000 10.4000 0.4000
10.2000 4.0000 0.4000
131.4000 4.0000 0.4000
145.6000 9.4000 0.4000
24.4000 9.4000 0.4000
101.2000 5.0000 0.4000
171.8000 8.4000 0.4000
50.6000 8.4000 0.4000
79.0000 6.0000 0.4000
190.0000 7.4000 0.4000
68.8000 7.4000 0.4000
65.1000 6.9000 0.4000
186.3000 6.9000 0.4000
80.7000 6.5000 0.4000
50.9000 7.9000 0.4000
172.1000 7.9000 0.4000
98.9000 5.5000 0.4000
28.7000 8.9000 0.4000
149.9000 8.9000 0.4000
125.1000 4.5000 0.4000
3.5000 4.9000 0.4000
119.7000 9.9000 0.4000
159.3000 3.5000 0.4000
38.1000 3.5000 0.4000
81.5000 10.9000 0.4000
197.9000 6.1000 0.4000
80.3000 2.5000 0.4000
35.3000 11.9000 0.4000
156.5000 11.9000 0.4000
130.5000 1.5000 0.4000
9.3000 1.5000 0.4000
102.5000 12.9000 0.4000
188.2657 0.5000 0.4000
67.0657 0.5000 0.4000
55.0657 0.5000 0.6000
176.2657 0.5000 0.6000
114.5000 12.9000 0.6000
0.5000 5.7000 0.6000
118.5000 1.5000 0.6000
168.5000 11.9000 0.6000
47.3000 11.9000 0.6000
68.3000 2.5000 0.6000
189.5000 2.5000 0.6000
93.5000 10.9000 0.6000
26.1000 3.5000 0.6000
147.3000 3.5000 0.6000
131.7000 9.9000 0.6000
10.5000 9.9000 0.6000
113.1000 4.5000 0.6000
161.9000 8.9000 0.6000
40.7000 8.9000 0.6000
86.9000 5.5000 0.6000
184.1000 7.9000 0.6000
62.9000 7.9000 0.6000
68.7000 6.5000 0.6000
189.9000 6.5000 0.6000
77.1000 6.9000 0.6000
56.8000 7.4000 0.6000
178.0000 7.4000 0.6000
91.0000 6.0000 0.6000
38.6000 8.4000 0.6000
159.8000 8.4000 0.6000
113.2000 5.0000 0.6000
12.4000 9.4000 0.6000
133.6000 9.4000 0.6000
143.4000 4.0000 0.6000
22.2000 4.0000 0.6000
99.4000 10.4000 0.6000
181.6000 3.0000 0.6000
60.4000 3.0000 0.6000
57.2000 11.4000 0.6000
178.4000 11.4000 0.6000
106.6000 2.0000 0.6000
7.0000 12.4000 0.6000
128.2000 12.4000 0.6000
160.8000 1.0000 0.6000
39.6000 1.0000 0.6000
82.0000 1.0000 0.8000
199.4000 4.8000 0.8000
85.8000 12.4000 0.8000
27.8000 2.0000 0.8000
149.0000 2.0000 0.8000
136.0000 11.4000 0.8000
14.8000 11.4000 0.8000
102.8000 3.0000 0.8000
178.2000 10.4000 0.8000
57.0000 10.4000 0.8000
64.6000 4.0000 0.8000
185.8000 4.0000 0.8000
91.2000 9.4000 0.8000
34.4000 5.0000 0.8000
155.6000 5.0000 0.8000
117.4000 8.4000 0.8000
12.2000 6.0000 0.8000
133.4000 6.0000 0.8000
135.6000 7.4000 0.8000
14.4000 7.4000 0.8000
119.5000 6.9000 0.8000
147.5000 6.5000 0.8000
26.3000 6.5000 0.8000
105.3000 7.9000 0.8000
165.7000 5.5000 0.8000
44.5000 5.5000 0.8000
83.1000 8.9000 0.8000
191.9000 4.5000 0.8000
70.7000 4.5000 0.8000
52.9000 9.9000 0.8000
174.1000 9.9000 0.8000
104.9000 3.5000 0.8000
14.7000 10.9000 0.8000
135.9000 10.9000 0.8000
147.1000 2.5000 0.8000
25.9000 2.5000 0.8000
89.7000 11.9000 0.8000
197.3000 1.5000 0.8000
76.1000 1.5000 0.8000
35.7000 12.9000 0.8000
156.9000 12.9000 0.8000
133.8657 0.5000 0.8000
12.6657 0.5000 0.8000
109.4657 0.5000 1.0000
181.3000 12.9000 1.0000
60.1000 12.9000 1.0000
51.7000 1.5000 1.0000
172.9000 1.5000 1.0000
114.1000 11.9000 1.0000
1.5000 3.3000 1.0000
122.7000 2.5000 1.0000
160.3000 10.9000 1.0000
39.1000 10.9000 1.0000
80.5000 3.5000 1.0000
196.9000 8.3000 1.0000
77.3000 9.9000 1.0000
46.3000 4.5000 1.0000
167.5000 4.5000 1.0000
107.5000 8.9000 1.0000
20.1000 5.5000 1.0000
141.3000 5.5000 1.0000
129.7000 7.9000 1.0000
8.5000 7.9000 1.0000
123.1000 6.5000 1.0000
143.9000 6.9000 1.0000
22.7000 6.9000 1.0000
111.2000 7.4000 1.0000
157.8000 6.0000 1.0000
36.6000 6.0000 1.0000
93.0000 8.4000 1.0000
180.0000 5.0000 1.0000
58.8000 5.0000 1.0000
66.8000 9.4000 1.0000
188.0000 9.4000 1.0000
89.0000 4.0000 1.0000
32.6000 10.4000 1.0000
153.8000 10.4000 1.0000
127.2000 3.0000 1.0000
6.0000 3.0000 1.0000
111.6000 11.4000 1.0000
173.4000 2.0000 1.0000
52.2000 2.0000 1.0000
61.4000 12.4000 1.0000
182.6000 12.4000 1.0000
106.4000 1.0000 1.0000
15.2000 1.0000 1.2000
136.4000 1.0000 1.2000
152.6000 12.4000 1.2000
31.4000 12.4000 1.2000
82.2000 2.0000 1.2000
198.4000 7.0000 1.2000
81.6000 11.4000 1.2000
36.0000 3.0000 1.2000
157.2000 3.0000 1.2000
123.8000 10.4000 1.2000
3.0000 10.0000 1.2000
119.0000 4.0000 1.2000
158.0000 9.4000 1.2000
36.8000 9.4000 1.2000
88.8000 5.0000 1.2000
184.2000 8.4000 1.2000
63.0000 8.4000 1.2000
66.6000 6.0000 1.2000
187.8000 6.0000 1.2000
81.2000 7.4000 1.2000
52.7000 6.9000 1.2000
173.9000 6.9000 1.2000
93.1000 6.5000 1.2000
38.5000 7.9000 1.2000
159.7000 7.9000 1.2000
111.3000 5.5000 1.2000
16.3000 8.9000 1.2000
137.5000 8.9000 1.2000
137.5000 4.5000 1.2000
16.3000 4.5000 1.2000
107.3000 9.9000 1.2000
171.7000 3.5000 1.2000
50.5000 3.5000 1.2000
69.1000 10.9000 1.2000
190.3000 10.9000 1.2000
92.7000 2.5000 1.2000
22.9000 11.9000 1.2000
144.1000 11.9000 1.2000
142.9000 1.5000 1.2000
21.7000 1.5000 1.2000
90.1000 12.9000 1.2000
199.9000 1.3828 1.2000
79.4657 0.5000 1.2000
42.6657 0.5000 1.4000
163.8657 0.5000 1.4000
126.9000 12.9000 1.4000
5.7000 12.9000 1.4000
106.1000 1.5000 1.4000
180.9000 11.9000 1.4000
59.7000 11.9000 1.4000
55.9000 2.5000 1.4000
177.1000 2.5000 1.4000
105.9000 10.9000 1.4000
13.7000 3.5000 1.4000
134.9000 3.5000 1.4000
144.1000 9.9000 1.4000
22.9000 9.9000 1.4000
100.7000 4.5000 1.4000
174.3000 8.9000 1.4000
53.1000 8.9000 1.4000
74.5000 5.5000 1.4000
194.9000 6.3000 1.4000
75.3000 7.9000 1.4000
56.3000 6.5000 1.4000
177.5000 6.5000 1.4000
89.5000 6.9000 1.4000
44.4000 7.4000 1.4000
165.6000 7.4000 1.4000
103.4000 6.0000 1.4000
26.2000 8.4000 1.4000
147.4000 8.4000 1.4000
125.6000 5.0000 1.4000
4.0000 5.4000 1.4000
121.2000 9.4000 1.4000
155.8000 4.0000 1.4000
34.6000 4.0000 1.4000
87.0000 10.4000 1.4000
194.0000 3.0000 1.4000
72.8000 3.0000 1.4000
44.8000 11.4000 1.4000
166.0000 11.4000 1.4000
119.0000 2.0000 1.4000
1.0000 6.0000 1.4000
115.8000 12.4000 1.4000
173.2000 1.0000 1.4000
52.0000 1.0000 1.4000
0.5000 0.9000 1.4000