File: experimental_data/tensile_specimen_test_data/TXT/(3)RD2001314-0.2,0.15.txt
0.6657 0.5000 0.2000
172.2657 0.5000 0.2000
68.1000 12.9000 0.2000
94.1000 1.5000 0.2000
142.5000 11.9000 0.2000
23.5000 2.5000 0.2000
195.1000 2.5000 0.2000
37.5000 10.9000 0.2000
132.5000 3.5000 0.2000
96.1000 9.9000 0.2000
77.9000 4.5000 0.2000
146.7000 8.9000 0.2000
31.3000 5.5000 0.2000
189.3000 7.9000 0.2000
17.7000 7.9000 0.2000
164.3000 6.5000 0.2000
52.3000 6.9000 0.2000
132.0000 7.4000 0.2000
86.6000 6.0000 0.2000
93.4000 8.4000 0.2000
129.2000 5.0000 0.2000
46.8000 9.4000 0.2000
179.8000 4.0000 0.2000
8.2000 4.0000 0.2000
163.8000 10.4000 0.2000
66.8000 3.0000 0.2000
101.2000 11.4000 0.2000
133.4000 2.0000 0.2000
30.6000 12.4000 0.2000
199.4000 9.6000 0.2000
36.4000 1.0000 0.2000
135.5000 0.9000 0.3500
103.5000 12.5000 0.3500
59.9000 1.7000 0.3500
175.9000 11.7000 0.3500
4.3000 11.7000 0.3500
162.3000 2.5000 0.3500
70.3000 10.9000 0.3500
99.5000 3.3000 0.3500
129.9000 10.1000 0.3500
43.1000 4.1000 0.3500
183.1000 9.3000 0.3500
11.5000 9.3000 0.3500
164.7000 4.9000 0.3500
58.3000 8.5000 0.3500
121.1000 5.7000 0.3500
98.7000 7.7000 0.3500
83.9000 6.5000 0.3500
132.7000 6.9000 0.3500
51.9000 7.3000 0.3500
166.3000 6.1000 0.3500
14.7000 8.1000 0.3500
186.3000 8.1000 0.3500
35.1000 5.3000 0.3500
142.7000 8.9000 0.3500
81.9000 4.5000 0.3500
92.7000 9.7000 0.3500
135.1000 3.7000 0.3500
36.3000 10.5000 0.3500
194.7000 2.9000 0.3500
23.1000 2.9000 0.3500
145.1000 11.3000 0.3500
89.1000 2.1000 0.3500
75.9000 12.1000 0.3500
161.5000 1.3000 0.3500
0.5000 12.5000 0.3500
171.7000 12.9000 0.3500
68.6657 0.5000 0.3500
103.8657 0.5000 0.5000
136.5000 12.9000 0.5000
25.7000 1.5000 0.5000
197.3000 1.5000 0.5000
39.3000 11.9000 0.5000
126.7000 2.5000 0.5000
105.9000 10.9000 0.5000
64.1000 3.5000 0.5000
164.5000 9.9000 0.5000
9.5000 4.5000 0.5000
181.1000 4.5000 0.5000
43.5000 8.9000 0.5000
134.5000 5.5000 0.5000
86.1000 7.9000 0.5000
95.9000 6.5000 0.5000
120.7000 6.9000 0.5000
63.6000 7.4000 0.5000
155.0000 6.0000 0.5000
25.0000 8.4000 0.5000
195.4000 7.2000 0.5000
26.0000 5.0000 0.5000
150.0000 9.4000 0.5000
76.6000 4.0000 0.5000
95.4000 10.4000 0.5000
135.2000 3.0000 0.5000
32.8000 11.4000 0.5000
198.4000 5.4000 0.5000
30.2000 2.0000 0.5000
133.8000 12.4000 0.5000
104.8000 1.0000 0.5000
67.1000 0.9000 0.6500
171.9000 12.5000 0.6500
0.9000 11.9000 0.6500
163.1000 1.7000 0.6500
72.7000 11.7000 0.6500
93.9000 2.5000 0.6500
138.7000 10.9000 0.6500
31.1000 3.3000 0.6500
197.1000 8.9000 0.6500
26.7000 10.1000 0.6500
146.3000 4.1000 0.6500
79.9000 9.3000 0.6500
96.3000 4.9000 0.6500
126.7000 8.5000 0.6500
52.7000 5.7000 0.6500
167.1000 7.7000 0.6500
15.5000 6.5000 0.6500
187.1000 6.5000 0.6500
29.5000 6.9000 0.6500
155.1000 7.3000 0.6500
63.1000 6.1000 0.6500
117.9000 8.1000 0.6500
103.5000 5.3000 0.6500
74.3000 8.9000 0.6500
150.3000 4.5000 0.6500
24.3000 9.7000 0.6500
195.9000 9.7000 0.6500
31.9000 3.7000 0.6500
139.5000 10.5000 0.6500
91.5000 2.9000 0.6500
76.7000 11.3000 0.6500
157.5000 2.1000 0.6500
7.5000 12.1000 0.6500
179.1000 12.1000 0.6500
58.3000 1.3000 0.6500
103.3000 12.9000 0.6500
137.0657 0.5000 0.6500
35.4657 0.5000 0.8000
199.9000 7.7828 0.8000
33.3000 12.9000 0.8000
128.9000 1.5000 0.8000
107.7000 11.9000 0.8000
58.3000 2.5000 0.8000
174.3000 10.9000 0.8000
2.7667 10.8333 0.8000
167.3000 3.5000 0.8000
61.3000 9.9000 0.8000
112.7000 4.5000 0.8000
111.9000 8.9000 0.8000
66.1000 5.5000 0.8000
154.5000 7.9000 0.8000
27.5000 6.5000 0.8000
189.1000 6.9000 0.8000
17.5000 6.9000 0.8000
166.8000 7.4000 0.8000
51.8000 6.0000 0.8000
128.2000 8.4000 0.8000
94.4000 5.0000 0.8000
81.6000 9.4000 0.8000
145.0000 4.0000 0.8000
27.0000 10.4000 0.8000
197.4000 9.2000 0.8000
32.0000 3.0000 0.8000
136.0000 11.4000 0.8000
98.6000 2.0000 0.8000
65.4000 12.4000 0.8000
173.2000 1.0000 0.8000
1.6000 1.0000 0.8000
170.3000 0.9000 0.9500
68.7000 12.5000 0.9500
94.7000 1.7000 0.9500
141.1000 11.7000 0.9500
25.5000 2.5000 0.9500
197.1000 2.5000 0.9500
35.5000 10.9000 0.9500
134.3000 3.3000 0.9500
95.1000 10.1000 0.9500
77.9000 4.1000 0.9500
148.3000 9.3000 0.9500
27.9000 4.9000 0.9500
195.1000 8.5000 0.9500
23.5000 8.5000 0.9500
155.9000 5.7000 0.9500
63.9000 7.7000 0.9500
118.7000 6.5000 0.9500
97.9000 6.9000 0.9500
86.7000 7.3000 0.9500
131.5000 6.1000 0.9500
49.5000 8.1000 0.9500
171.9000 5.3000 0.9500
5.9000 8.9000 0.9500
177.5000 8.9000 0.9500
47.1000 4.5000 0.9500
127.5000 9.7000 0.9500
100.3000 3.7000 0.9500
71.1000 10.5000 0.9500
159.9000 2.9000 0.9500
8.3000 11.3000 0.9500
179.9000 11.3000 0.9500
54.3000 2.1000 0.9500
110.7000 12.1000 0.9500
126.7000 1.3000 0.9500
34.9000 12.9000 0.9500
199.9000 6.1828 0.9500
33.8657 0.5000 0.9500
138.6657 0.5000 1.1000
101.7000 12.9000 1.1000
60.5000 1.5000 1.1000
176.1000 11.9000 1.1000
4.5000 11.9000 1.1000
161.5000 2.5000 1.1000
71.1000 10.9000 1.1000
98.9000 3.5000 1.1000
129.7000 9.9000 1.1000
44.3000 4.5000 1.1000
180.3000 8.9000 1.1000
8.7000 8.9000 1.1000
169.3000 5.5000 1.1000
51.3000 7.9000 1.1000
130.7000 6.5000 1.1000
85.9000 6.9000 1.1000
98.4000 7.4000 1.1000
120.2000 6.0000 1.1000
59.8000 8.4000 1.1000
162.8000 5.0000 1.1000
13.2000 9.4000 1.1000
184.8000 9.4000 1.1000
41.8000 4.0000 1.1000
130.2000 10.4000 1.1000
100.4000 3.0000 1.1000
67.6000 11.4000 1.1000
167.0000 2.0000 1.1000
1.0000 8.4000 1.1000
168.6000 12.4000 1.1000
70.0000 1.0000 1.1000
101.9000 0.9000 1.2500
137.1000 12.5000 1.2500
26.3000 1.7000 1.2500
197.9000 1.7000 1.2500
37.9000 11.7000 1.2500
128.7000 2.5000 1.2500
103.9000 10.9000 1.2500
65.9000 3.3000 1.2500
163.5000 10.1000 1.2500
9.5000 4.1000 1.2500
181.1000 4.1000 1.2500
45.1000 9.3000 1.2500
131.1000 4.9000 1.2500
91.9000 8.5000 1.2500
87.5000 5.7000 1.2500
132.3000 7.7000 1.2500
50.3000 6.5000 1.2500
166.3000 6.9000 1.2500
18.3000 7.3000 1.2500
189.9000 7.3000 1.2500
28.3000 6.1000 1.2500
152.7000 8.1000 1.2500
68.7000 5.3000 1.2500
109.1000 8.9000 1.2500
115.5000 4.5000 1.2500
59.1000 9.7000 1.2500
168.7000 3.7000 1.2500
2.9667 10.2333 1.2500
174.3000 10.5000 1.2500
56.7000 2.9000 1.2500
111.5000 11.3000 1.2500
122.7000 2.1000 1.2500
42.3000 12.1000 1.2500
195.1000 1.3000 1.2500
23.5000 1.3000 1.2500
138.1000 12.9000 1.2500
102.2657 0.5000 1.2500
70.2657 0.5000 1.4000
170.1000 12.9000 1.4000
0.5000 10.9000 1.4000
163.7000 1.5000 1.4000
72.9000 11.9000 1.4000
93.1000 2.5000 1.4000
139.5000 10.9000 1.4000
30.5000 3.5000 1.4000
196.9000 8.7000 1.4000
26.5000 9.9000 1.4000
147.5000 4.5000 1.4000
77.1000 8.9000 1.4000
100.9000 5.5000 1.4000
119.7000 7.9000 1.4000
62.3000 6.5000 1.4000
154.3000 6.9000 1.4000
30.0000 7.4000 1.4000
188.6000 6.0000 1.4000
17.0000 6.0000 1.4000
163.0000 8.4000 1.4000
59.6000 5.0000 1.4000
116.4000 9.4000 1.4000
110.2000 4.0000 1.4000
61.8000 10.4000 1.4000
168.8000 3.0000 1.4000
2.0000 8.6000 1.4000
170.8000 11.4000 1.4000
63.8000 2.0000 1.4000
100.2000 12.4000 1.4000
138.4000 1.0000 1.4000
0.5000 0.9000 1.4000