File: experimental_data/tensile_specimen_test_data/TXT/(4)RD2001315-0.2,0.13.txt
0.6657 0.5000 0.2000
199.9000 11.7828 0.2000
0.5000 2.9000 0.2000
197.7000 11.9000 0.2000
7.1000 2.5000 0.2000
186.7000 10.9000 0.2000
22.1000 3.5000 0.2000
167.7000 9.9000 0.2000
45.1000 4.5000 0.2000
140.7000 8.9000 0.2000
76.1000 5.5000 0.2000
105.7000 7.9000 0.2000
115.1000 6.5000 0.2000
62.7000 6.9000 0.2000
160.4000 7.4000 0.2000
19.4000 6.0000 0.2000
194.8000 5.0000 0.2000
20.0000 9.4000 0.2000
167.8000 4.0000 0.2000
43.0000 10.4000 0.2000
148.8000 3.0000 0.2000
58.0000 11.4000 0.2000
137.8000 2.0000 0.2000
65.0000 12.4000 0.2000
134.8000 1.0000 0.2000
75.9000 0.9000 0.3300
124.3000 12.5000 0.3300
77.9000 1.7000 0.3300
119.1000 11.7000 0.3300
86.3000 2.5000 0.3300
107.5000 10.9000 0.3300
101.1000 3.3000 0.3300
89.5000 10.1000 0.3300
122.3000 4.1000 0.3300
65.1000 9.3000 0.3300
149.9000 4.9000 0.3300
34.3000 8.5000 0.3300
183.9000 5.7000 0.3300
13.9000 6.5000 0.3300
163.9000 6.9000 0.3300
59.5000 7.3000 0.3300
119.9000 6.1000 0.3300
99.9000 8.1000 0.3300
82.7000 5.3000 0.3300
133.9000 8.9000 0.3300
51.9000 4.5000 0.3300
161.5000 9.7000 0.3300
27.5000 3.7000 0.3300
182.7000 10.5000 0.3300
9.5000 2.9000 0.3300
197.5000 11.3000 0.3300
1.3000 6.3000 0.3300
199.1000 5.3000 0.3300
0.5000 9.7000 0.3300
199.9000 4.9828 0.3300
7.0657 0.5000 0.4600
194.5000 12.9000 0.4600
6.5000 1.5000 0.4600
191.3000 11.9000 0.4600
13.5000 2.5000 0.4600
180.3000 10.9000 0.4600
28.5000 3.5000 0.4600
161.3000 9.9000 0.4600
51.5000 4.5000 0.4600
134.3000 8.9000 0.4600
82.5000 5.5000 0.4600
99.3000 7.9000 0.4600
121.5000 6.5000 0.4600
56.3000 6.9000 0.4600
166.8000 7.4000 0.4600
13.0000 6.0000 0.4600
188.4000 5.0000 0.4600
26.4000 9.4000 0.4600
161.4000 4.0000 0.4600
49.4000 10.4000 0.4600
142.4000 3.0000 0.4600
64.4000 11.4000 0.4600
131.4000 2.0000 0.4600
71.4000 12.4000 0.4600
128.4000 1.0000 0.4600
82.3000 0.9000 0.5900
117.9000 12.5000 0.5900
84.3000 1.7000 0.5900
112.7000 11.7000 0.5900
92.7000 2.5000 0.5900
101.1000 10.9000 0.5900
107.5000 3.3000 0.5900
83.1000 10.1000 0.5900
128.7000 4.1000 0.5900
58.7000 9.3000 0.5900
156.3000 4.9000 0.5900
27.9000 8.5000 0.5900
190.3000 5.7000 0.5900
20.3000 6.5000 0.5900
157.5000 6.9000 0.5900
65.9000 7.3000 0.5900
113.5000 6.1000 0.5900
106.3000 8.1000 0.5900
76.3000 5.3000 0.5900
140.3000 8.9000 0.5900
45.5000 4.5000 0.5900
167.9000 9.7000 0.5900
21.1000 3.7000 0.5900
189.1000 10.5000 0.5900
2.9000 2.9667 0.5900
198.3000 5.7000 0.5900
1.9000 12.1000 0.5900
196.7000 1.3000 0.5900
3.7000 12.9000 0.5900
197.8657 0.5000 0.5900
13.4657 0.5000 0.7200
188.1000 12.9000 0.7200
12.9000 1.5000 0.7200
184.9000 11.9000 0.7200
19.9000 2.5000 0.7200
173.9000 10.9000 0.7200
34.9000 3.5000 0.7200
154.9000 9.9000 0.7200
57.9000 4.5000 0.7200
127.9000 8.9000 0.7200
88.9000 5.5000 0.7200
92.9000 7.9000 0.7200
127.9000 6.5000 0.7200
49.9000 6.9000 0.7200
173.2000 7.4000 0.7200
6.6000 6.0000 0.7200
182.0000 5.0000 0.7200
32.8000 9.4000 0.7200
155.0000 4.0000 0.7200
55.8000 10.4000 0.7200
136.0000 3.0000 0.7200
70.8000 11.4000 0.7200
125.0000 2.0000 0.7200
77.8000 12.4000 0.7200
122.0000 1.0000 0.7200
88.7000 0.9000 0.8500
111.5000 12.5000 0.8500
90.7000 1.7000 0.8500
106.3000 11.7000 0.8500
99.1000 2.5000 0.8500
94.7000 10.9000 0.8500
113.9000 3.3000 0.8500
76.7000 10.1000 0.8500
135.1000 4.1000 0.8500
52.3000 9.3000 0.8500
162.7000 4.9000 0.8500
21.5000 8.5000 0.8500
194.5667 7.5667 0.8500
26.7000 6.5000 0.8500
151.1000 6.9000 0.8500
72.3000 7.3000 0.8500
107.1000 6.1000 0.8500
112.7000 8.1000 0.8500
69.9000 5.3000 0.8500
146.7000 8.9000 0.8500
39.1000 4.5000 0.8500
174.3000 9.7000 0.8500
14.7000 3.7000 0.8500
195.5000 10.5000 0.8500
2.1000 9.1000 0.8500
195.5000 2.1000 0.8500
8.3000 12.1000 0.8500
190.3000 1.3000 0.8500
10.1000 12.9000 0.8500
191.4657 0.5000 0.8500
19.8657 0.5000 0.9800
181.7000 12.9000 0.9800
19.3000 1.5000 0.9800
178.5000 11.9000 0.9800
26.3000 2.5000 0.9800
167.5000 10.9000 0.9800
41.3000 3.5000 0.9800
148.5000 9.9000 0.9800
64.3000 4.5000 0.9800
121.5000 8.9000 0.9800
95.3000 5.5000 0.9800
86.5000 7.9000 0.9800
134.3000 6.5000 0.9800
43.5000 6.9000 0.9800
179.6000 7.4000 0.9800
8.2000 8.4000 0.9800
175.6000 5.0000 0.9800
39.2000 9.4000 0.9800
148.6000 4.0000 0.9800
62.2000 10.4000 0.9800
129.6000 3.0000 0.9800
77.2000 11.4000 0.9800
118.6000 2.0000 0.9800
84.2000 12.4000 0.9800
115.6000 1.0000 0.9800
95.1000 0.9000 1.1100
105.1000 12.5000 1.1100
97.1000 1.7000 1.1100
99.9000 11.7000 1.1100
105.5000 2.5000 1.1100
88.3000 10.9000 1.1100
120.3000 3.3000 1.1100
70.3000 10.1000 1.1100
141.5000 4.1000 1.1100
45.9000 9.3000 1.1100
169.1000 4.9000 1.1100
15.1000 8.5000 1.1100
188.3000 7.7000 1.1100
33.1000 6.5000 1.1100
144.7000 6.9000 1.1100
78.7000 7.3000 1.1100
100.7000 6.1000 1.1100
119.1000 8.1000 1.1100
63.5000 5.3000 1.1100
153.1000 8.9000 1.1100
32.7000 4.5000 1.1100
180.7000 9.7000 1.1100
8.3000 3.7000 1.1100
197.5000 6.1000 1.1100
6.3000 11.3000 1.1100
189.1000 2.1000 1.1100
14.7000 12.1000 1.1100
183.9000 1.3000 1.1100
16.5000 12.9000 1.1100
185.0657 0.5000 1.1100
26.2657 0.5000 1.2400
175.3000 12.9000 1.2400
25.7000 1.5000 1.2400
172.1000 11.9000 1.2400
32.7000 2.5000 1.2400
161.1000 10.9000 1.2400
47.7000 3.5000 1.2400
142.1000 9.9000 1.2400
70.7000 4.5000 1.2400
115.1000 8.9000 1.2400
101.7000 5.5000 1.2400
80.1000 7.9000 1.2400
140.7000 6.5000 1.2400
37.1000 6.9000 1.2400
186.0000 7.4000 1.2400
14.6000 8.4000 1.2400
169.2000 5.0000 1.2400
45.6000 9.4000 1.2400
142.2000 4.0000 1.2400
68.6000 10.4000 1.2400
123.2000 3.0000 1.2400
83.6000 11.4000 1.2400
112.2000 2.0000 1.2400
90.6000 12.4000 1.2400
109.2000 1.0000 1.2400
101.5000 0.9000 1.3700
98.7000 12.5000 1.3700
103.5000 1.7000 1.3700
93.5000 11.7000 1.3700
111.9000 2.5000 1.3700
81.9000 10.9000 1.3700
126.7000 3.3000 1.3700
63.9000 10.1000 1.3700
147.9000 4.1000 1.3700
39.5000 9.3000 1.3700
175.5000 4.9000 1.3700
8.7000 8.5000 1.3700
181.9000 7.7000 1.3700
39.5000 6.5000 1.3700
138.3000 6.9000 1.3700
85.1000 7.3000 1.3700
94.3000 6.1000 1.3700
125.5000 8.1000 1.3700
57.1000 5.3000 1.3700
159.5000 8.9000 1.3700
26.3000 4.5000 1.3700
187.1000 9.7000 1.3700
2.9000 5.5000 1.3700
194.3000 2.9000 1.3700
12.7000 11.3000 1.3700
182.7000 2.1000 1.3700
21.1000 12.1000 1.3700
177.5000 1.3000 1.3700
22.9000 12.9000 1.3700
178.6657 0.5000 1.3700
32.6657 0.5000 1.5000
168.9000 12.9000 1.5000
32.1000 1.5000 1.5000
165.7000 11.9000 1.5000
39.1000 2.5000 1.5000
154.7000 10.9000 1.5000
54.1000 3.5000 1.5000
135.7000 9.9000 1.5000
77.1000 4.5000 1.5000
108.7000 8.9000 1.5000
108.1000 5.5000 1.5000
73.7000 7.9000 1.5000
147.1000 6.5000 1.5000
30.7000 6.9000 1.5000
192.4000 7.4000 1.5000
21.0000 8.4000 1.5000
162.8000 5.0000 1.5000
52.0000 9.4000 1.5000
135.8000 4.0000 1.5000
75.0000 10.4000 1.5000
116.8000 3.0000 1.5000
90.0000 11.4000 1.5000
105.8000 2.0000 1.5000
97.0000 12.4000 1.5000
102.8000 1.0000 1.5000
0.5000 0.9000 1.5000